CaF2 AR coating: spectral data (per surface)							
							
	R at 0 deg	R at 20 deg	R at 30 deg		T at 0 deg	T at 20 deg	T at 30 deg
360	1.2512	0.43055	0.21332		97.75072	98.56623	98.78388
361	1.04573	0.35282	0.21413		97.97572	98.66479	98.80441
362	0.86795	0.29191	0.22051		98.17318	98.74651	98.81921
363	0.71588	0.24587	0.23113		98.34507	98.81331	98.8296
364	0.5875	0.21283	0.24478		98.49337	98.86705	98.83675
365	0.48078	0.19099	0.26042		98.62006	98.90948	98.84174
366	0.39372	0.17869	0.27711		98.7271	98.94228	98.84547
367	0.32435	0.17435	0.29404		98.81645	98.967	98.84874
368	0.27076	0.17652	0.31054		98.88999	98.98503	98.85224
369	0.23111	0.18388	0.32605		98.94953	98.99773	98.85654
370	0.20363	0.19522	0.3401		98.99683	99.00629	98.86208
371	0.1868	0.20914	0.35205		99.03174	99.01048	98.86791
372	0.17863	0.22493	0.36198		99.05789	99.01263	98.87558
373	0.17771	0.24177	0.36971		99.07668	99.01356	98.88527
374	0.18276	0.25896	0.37515		99.08937	99.01396	98.89707
375	0.19257	0.2759	0.37827		99.09717	99.01445	98.91103
376	0.20607	0.29208	0.37909		99.10114	99.01552	98.92712
377	0.22227	0.30709	0.37768		99.10224	99.01759	98.94529
378	0.24031	0.32061	0.37417		99.10136	99.021	98.96541
379	0.25941	0.33238	0.36871		99.09926	99.02599	98.98732
380	0.2789	0.34222	0.36149		99.09661	99.03273	99.01088
381	0.2982	0.35004	0.3527		99.09399	99.04135	99.03585
382	0.31684	0.35577	0.34258		99.09187	99.0519	99.06203
383	0.3344	0.35943	0.33137		99.09068	99.06438	99.0892
384	0.35057	0.36105	0.31929		99.09072	99.07876	99.1171
385	0.36509	0.36073	0.3066		99.09225	99.09493	99.14552
386	0.37779	0.35859	0.29354		99.09547	99.11279	99.17419
387	0.38855	0.35478	0.28034		99.10048	99.13221	99.20291
388	0.3973	0.34947	0.26723		99.10735	99.15299	99.23145
389	0.40403	0.34285	0.25441		99.1161	99.17497	99.25959
390	0.40775	0.33459	0.24176		99.11951	99.19021	99.27915
391	0.40963	0.32544	0.22967		99.12468	99.20628	99.29812
392	0.40977	0.31558	0.21827		99.13152	99.22301	99.31635
393	0.40827	0.30521	0.20769		99.13994	99.2402	99.33372
394	0.40527	0.29449	0.19804		99.1498	99.25769	99.35014
395	0.4009	0.28362	0.1894		99.16095	99.27528	99.3655
396	0.39533	0.27276	0.18184		99.17326	99.29282	99.37975
397	0.38873	0.26207	0.17542		99.18655	99.31013	99.39283
398	0.38125	0.2517	0.17018		99.20065	99.3271	99.4047
399	0.37308	0.2418	0.16613		99.21539	99.34355	99.41535
400	0.36439	0.23248	0.16327		99.23061	99.35939	99.42477
401	0.35583	0.22432	0.16197		99.24566	99.37402	99.43261
402	0.34711	0.21696	0.16182		99.26082	99.38783	99.43928
403	0.33838	0.21048	0.16277		99.27594	99.40073	99.44481
404	0.32979	0.20492	0.16477		99.29089	99.41266	99.44926
405	0.32148	0.20034	0.16776		99.30552	99.42358	99.45269
406	0.31356	0.19677	0.17167		99.31972	99.43348	99.45518
407	0.30616	0.19423	0.17641		99.33337	99.44231	99.4568
408	0.29936	0.19272	0.1819		99.34637	99.45007	99.45764
409	0.29326	0.19223	0.18806		99.35865	99.45678	99.45779
410	0.28793	0.19274	0.19478		99.37012	99.46247	99.45734
411	0.28343	0.19422	0.20197		99.38074	99.46716	99.45639
412	0.2798	0.19661	0.20954		99.39045	99.4709	99.45503
413	0.27707	0.19988	0.21739		99.39922	99.47374	99.45337
414	0.27527	0.20396	0.22542		99.40704	99.47574	99.45148
415	0.2744	0.20878	0.23354		99.4139	99.47697	99.44949
416	0.27446	0.21427	0.24167		99.4198	99.4775	99.44745
417	0.27543	0.22036	0.24971		99.42476	99.47741	99.44547
418	0.27728	0.22695	0.25758		99.42881	99.47678	99.44361
419	0.27999	0.23397	0.26521		99.43198	99.47569	99.44197
420	0.2835	0.24132	0.27254		99.43431	99.47424	99.44061
421	0.28776	0.24894	0.2795		99.43587	99.4725	99.43958
422	0.29272	0.25672	0.28603		99.43669	99.47056	99.43893
423	0.29831	0.26458	0.29209		99.43686	99.46851	99.43874
424	0.30446	0.27244	0.29764		99.43645	99.46643	99.43901
425	0.31109	0.28023	0.30265		99.43551	99.46439	99.4398
426	0.31814	0.28787	0.30709		99.43413	99.46248	99.44112
427	0.32553	0.29528	0.31096		99.43239	99.46076	99.44299
428	0.33317	0.30239	0.31423		99.43036	99.4593	99.44543
429	0.34099	0.30916	0.31691		99.42812	99.45816	99.44841
430	0.34891	0.31552	0.319		99.42577	99.45741	99.45195
431	0.35685	0.32142	0.32053		99.42335	99.45708	99.45604
432	0.36474	0.32683	0.3215		99.42096	99.45721	99.46064
433	0.37251	0.33169	0.32195		99.41866	99.45785	99.46573
434	0.38008	0.336	0.32191		99.41653	99.45902	99.47128
435	0.3874	0.33971	0.32142		99.41462	99.46075	99.47725
436	0.3944	0.34281	0.32052		99.41301	99.46307	99.4836
437	0.40102	0.3453	0.31926		99.41174	99.46597	99.49029
438	0.40722	0.34716	0.31769		99.41086	99.46947	99.49725
439	0.41295	0.34841	0.31587		99.41043	99.47354	99.50443
440	0.41816	0.34905	0.31385		99.41048	99.47821	99.51179
441	0.42283	0.34909	0.31169		99.41105	99.48344	99.51926
442	0.42693	0.34856	0.30946		99.41216	99.48921	99.52677
443	0.43042	0.34747	0.30721		99.41385	99.49551	99.53426
444	0.43331	0.34586	0.30501		99.41612	99.5023	99.54169
445	0.43556	0.34377	0.30293		99.41898	99.50955	99.54897
446	0.43719	0.34122	0.30102		99.42246	99.51723	99.55605
447	0.43818	0.33827	0.29935		99.42654	99.52529	99.56285
448	0.43854	0.33495	0.29798		99.43122	99.53368	99.56934
449	0.43828	0.33131	0.29697		99.43649	99.54237	99.57545
450	0.43742	0.32741	0.29637		99.44234	99.5513	99.58112
451	0.43607	0.32341	0.29636		99.44865	99.56029	99.58617
452	0.43417	0.31925	0.29686		99.45549	99.56942	99.59068
453	0.43174	0.315	0.29793		99.46282	99.57863	99.5946
454	0.42882	0.31068	0.2996		99.47063	99.58786	99.59791
455	0.42544	0.30637	0.3019		99.47887	99.59707	99.60055
456	0.42163	0.30212	0.30488		99.48752	99.60619	99.60249
457	0.41743	0.29796	0.30856		99.49653	99.61519	99.60371
458	0.41289	0.29397	0.31296		99.50585	99.62402	99.60418
459	0.40805	0.29017	0.31811		99.51546	99.63261	99.60388
460	0.40295	0.28663	0.32401		99.52529	99.64093	99.6028
461	0.39673	0.28267	0.33018		99.53218	99.64557	99.59731
462	0.39036	0.27906	0.33714		99.53921	99.64985	99.59103
463	0.38389	0.27583	0.34488		99.54634	99.65374	99.58397
464	0.37737	0.27303	0.35342		99.55353	99.65721	99.5761
465	0.37082	0.27068	0.36273		99.56073	99.66021	99.56745
466	0.3643	0.26882	0.37282		99.5679	99.66273	99.55803
467	0.35785	0.26747	0.38366		99.575	99.66473	99.54785
468	0.35151	0.26666	0.39524		99.58199	99.6662	99.53693
469	0.34531	0.26641	0.40754		99.58883	99.6671	99.52528
470	0.33931	0.26673	0.42053		99.59547	99.66743	99.51295
471	0.33353	0.26764	0.43417		99.60189	99.66715	99.49996
472	0.328	0.26915	0.44844		99.60806	99.66628	99.48634
473	0.32277	0.27126	0.46331		99.61391	99.66481	99.47212
474	0.31785	0.27399	0.47872		99.61946	99.66271	99.45735
475	0.31328	0.27732	0.49464		99.62465	99.66001	99.44207
476	0.30909	0.28126	0.51103		99.62947	99.6567	99.42632
477	0.30529	0.2858	0.52783		99.63388	99.65279	99.41015
478	0.3019	0.29093	0.54501		99.63789	99.64827	99.3936
479	0.29895	0.29664	0.56251		99.64145	99.64318	99.37673
480	0.29645	0.30292	0.58028		99.64456	99.63753	99.35959
481	0.29441	0.30973	0.59826		99.64721	99.63132	99.34222
482	0.29283	0.31707	0.61642		99.64939	99.6246	99.32469
483	0.29173	0.32491	0.63468		99.65109	99.61737	99.30704
484	0.29111	0.33322	0.653		99.65231	99.60966	99.28934
485	0.29096	0.34198	0.67132		99.65306	99.60152	99.27164
486	0.2913	0.35115	0.68959		99.65332	99.59294	99.25397
487	0.29201	0.36066	0.70781		99.65321	99.58403	99.23636
488	0.29319	0.37053	0.7259		99.65261	99.57475	99.21887
489	0.29483	0.38073	0.74379		99.65156	99.56515	99.20158
490	0.29692	0.39123	0.76143		99.65004	99.55524	99.18454
491	0.29945	0.40198	0.77878		99.64809	99.54508	99.16779
492	0.30241	0.41294	0.79577		99.64571	99.5347	99.15138
493	0.30578	0.42409	0.81238		99.64293	99.52414	99.13537
494	0.30954	0.43538	0.82854		99.63974	99.51344	99.1198
495	0.31366	0.44677	0.84421		99.63618	99.50262	99.10471
496	0.31814	0.45821	0.85935		99.63228	99.49175	99.09015
497	0.32294	0.46968	0.87392		99.62805	99.48086	99.07616
498	0.32803	0.48113	0.88788		99.62351	99.46998	99.06277
499	0.33341	0.49253	0.9012		99.61871	99.45915	99.05003
500	0.33903	0.50382	0.91383		99.61365	99.44843	99.03797
501	0.34497	0.51494	0.92555		99.60825	99.43787	99.02682
502	0.3511	0.52586	0.93653		99.60268	99.42751	99.01641
503	0.35736	0.53656	0.94673		99.59698	99.41737	99.00677
504	0.36374	0.54701	0.95614		99.59116	99.40748	98.99792
505	0.3702	0.55715	0.96474		99.58524	99.39789	98.98988
506	0.37671	0.56698	0.97251		99.57927	99.38861	98.98266
507	0.38325	0.57644	0.97943		99.57327	99.37969	98.97629
508	0.38978	0.58552	0.9855		99.56728	99.37116	98.97078
509	0.39628	0.59419	0.99071		99.56133	99.36304	98.96612
510	0.40272	0.60242	0.99504		99.55543	99.35535	98.96233
511	0.40906	0.61019	0.9985		99.54961	99.34812	98.95941
512	0.41528	0.61747	1.00109		99.54392	99.34138	98.95737
513	0.42136	0.62425	1.0028		99.53838	99.33513	98.95619
514	0.42727	0.63051	1.00364		99.533	99.32941	98.95588
515	0.43297	0.63622	1.00363		99.52782	99.32421	98.95643
516	0.43846	0.64139	1.00276		99.52285	99.31958	98.95783
517	0.44371	0.64599	1.00105		99.51813	99.31551	98.96007
518	0.44869	0.65001	0.99851		99.51366	99.312	98.96313
519	0.45339	0.65346	0.99516		99.50948	99.30908	98.967
520	0.45778	0.65631	0.99103		99.5056	99.30675	98.97166
521	0.46185	0.65857	0.98611		99.50204	99.305	98.97709
522	0.46559	0.66024	0.98045		99.49881	99.30384	98.98327
523	0.46898	0.66131	0.97406		99.49593	99.30328	98.99017
524	0.47201	0.66179	0.96697		99.49341	99.30331	98.99778
525	0.47466	0.66168	0.9592		99.49126	99.30393	99.00605
526	0.47693	0.66099	0.95079		99.48949	99.30512	99.01497
527	0.47881	0.65972	0.94176		99.48811	99.30689	99.02451
528	0.48029	0.65788	0.93215		99.48712	99.30923	99.03462
529	0.48137	0.6555	0.92198		99.48653	99.31212	99.04529
530	0.48205	0.65256	0.9113		99.48635	99.31554	99.05647
531	0.48232	0.6491	0.90013		99.48657	99.3195	99.06814
532	0.48218	0.64513	0.88851		99.4872	99.32396	99.08025
533	0.48164	0.64067	0.87647		99.48823	99.32892	99.09279
534	0.48069	0.63572	0.86405		99.48966	99.33435	99.10569
535	0.47935	0.63032	0.85129		99.49149	99.34023	99.11894
536	0.47761	0.62448	0.83822		99.4937	99.34656	99.1325
537	0.47549	0.61823	0.82489		99.49629	99.35329	99.14631
538	0.473	0.61159	0.81132		99.49927	99.36041	99.16037
539	0.47013	0.60457	0.79756		99.5026	99.3679	99.17461
540	0.46692	0.59722	0.78364		99.50629	99.37573	99.18901
541	0.46336	0.58955	0.7696		99.51031	99.38387	99.20353
542	0.45947	0.58158	0.75547		99.51468	99.39231	99.21813
543	0.45527	0.57335	0.74129		99.51934	99.40101	99.23278
544	0.45077	0.56488	0.7271		99.52431	99.40994	99.24745
545	0.44598	0.5562	0.71292		99.52956	99.41909	99.26208
546	0.44093	0.54734	0.69881		99.53506	99.42842	99.27667
547	0.43563	0.53832	0.68478		99.54082	99.4379	99.29117
548	0.43011	0.52917	0.67087		99.5468	99.44751	99.30555
549	0.42437	0.51992	0.65711		99.55299	99.45721	99.31977
550	0.41844	0.5106	0.64353		99.55937	99.467	99.3338
551	0.41233	0.50125	0.63023		99.56593	99.4768	99.34756
552	0.40608	0.49189	0.61717		99.57263	99.48661	99.36108
553	0.39971	0.48255	0.60439		99.57944	99.49641	99.37432
554	0.39324	0.47325	0.59191		99.58636	99.50616	99.38725
555	0.38797	0.4655	0.58123		99.59178	99.51405	99.39807
556	0.38262	0.45777	0.57077		99.59727	99.52192	99.40868
557	0.3772	0.45008	0.56053		99.60284	99.52975	99.41907
558	0.37173	0.44244	0.55053		99.60845	99.53754	99.42921
559	0.36622	0.43487	0.54078		99.61411	99.54525	99.43911
560	0.36069	0.42739	0.53131		99.61977	99.55288	99.44872
561	0.35515	0.42001	0.52212		99.62545	99.56039	99.45805
562	0.34963	0.41276	0.51323		99.63111	99.56779	99.46709
563	0.34412	0.40565	0.50465		99.63676	99.57504	99.47581
564	0.33866	0.39868	0.49638		99.64236	99.58214	99.48421
565	0.33324	0.39189	0.48845		99.64792	99.58907	99.49229
566	0.3279	0.38528	0.48086		99.6534	99.59582	99.50002
567	0.32264	0.37887	0.47362		99.65879	99.60237	99.50741
568	0.31747	0.37267	0.46673		99.6641	99.60872	99.51443
569	0.31242	0.36668	0.46019		99.66929	99.61484	99.52111
570	0.30748	0.36093	0.45402		99.67436	99.62073	99.52742
571	0.30268	0.35543	0.44822		99.67929	99.62637	99.53336
572	0.29803	0.35017	0.44278		99.68407	99.63176	99.53893
573	0.29354	0.34518	0.43772		99.68871	99.63689	99.54414
574	0.28922	0.34045	0.43302		99.69315	99.64175	99.54897
575	0.28509	0.336	0.4287		99.69743	99.64634	99.55343
576	0.28114	0.33184	0.42474		99.70151	99.65063	99.55753
577	0.2774	0.32796	0.42116		99.70538	99.65465	99.56124
578	0.27387	0.32438	0.41793		99.70905	99.65836	99.56461
579	0.27055	0.3211	0.41506		99.71249	99.66177	99.56762
580	0.26747	0.31811	0.41254		99.71571	99.66489	99.57026
581	0.26462	0.31543	0.41037		99.71869	99.6677	99.57257
582	0.26201	0.31306	0.40854		99.72144	99.67021	99.57453
583	0.25965	0.31099	0.40705		99.72392	99.67242	99.57616
584	0.25754	0.30922	0.40587		99.72616	99.67432	99.57747
585	0.25569	0.30776	0.40501		99.72814	99.6759	99.57846
586	0.25409	0.3066	0.40445		99.72986	99.6772	99.57915
587	0.25277	0.30573	0.40419		99.73132	99.67819	99.57954
588	0.25169	0.30516	0.4042		99.73252	99.67889	99.57967
589	0.25089	0.30487	0.40448		99.73344	99.67931	99.57951
590	0.25035	0.30487	0.40502		99.73411	99.67944	99.5791
591	0.25009	0.30516	0.40581		99.7345	99.67928	99.57845
592	0.25009	0.30571	0.40683		99.73463	99.67885	99.57756
593	0.25036	0.30654	0.40807		99.73448	99.67815	99.57645
594	0.2509	0.30763	0.40951		99.73407	99.67719	99.57513
595	0.2517	0.30897	0.41115		99.73339	99.67597	99.57362
596	0.25276	0.31056	0.41296		99.73245	99.67451	99.57194
597	0.25408	0.31238	0.41493		99.73125	99.67281	99.57009
598	0.25566	0.31443	0.41705		99.7298	99.67089	99.5681
599	0.25748	0.31669	0.4193		99.7281	99.66875	99.56598
600	0.25954	0.31916	0.42166		99.72617	99.66641	99.56374
601	0.2619	0.32187	0.42417		99.72394	99.66383	99.56136
602	0.26448	0.32476	0.42676		99.72147	99.66105	99.55889
603	0.26729	0.32782	0.42941		99.71879	99.65811	99.55637
604	0.27031	0.33104	0.43212		99.71589	99.65502	99.55378
605	0.27353	0.3344	0.43485		99.71278	99.65179	99.55117
606	0.27695	0.33788	0.4376		99.70948	99.64842	99.54855
607	0.28057	0.34148	0.44036		99.70599	99.64494	99.54591
608	0.28435	0.34519	0.4431		99.70232	99.64135	99.54329
609	0.28831	0.34898	0.44581		99.69849	99.63768	99.5407
610	0.29243	0.35285	0.44847		99.69448	99.63393	99.53816
611	0.29669	0.35678	0.45108		99.69034	99.63013	99.53567
612	0.30108	0.36076	0.45362		99.68607	99.62627	99.53326
613	0.3056	0.36476	0.45606		99.68166	99.62238	99.53093
614	0.31023	0.36879	0.45841		99.67715	99.61846	99.5287
615	0.31496	0.37282	0.46064		99.67253	99.61456	99.52658
616	0.31978	0.37684	0.46275		99.66783	99.61065	99.5246
617	0.32468	0.38084	0.46472		99.66306	99.60677	99.52274
618	0.32963	0.3848	0.46653		99.65822	99.60293	99.52105
619	0.33464	0.38871	0.46819		99.65332	99.59913	99.51951
620	0.33968	0.39255	0.46967		99.6484	99.59541	99.51814
621	0.34474	0.39632	0.47097		99.64345	99.59175	99.51697
622	0.34982	0.4	0.47208		99.63849	99.58819	99.51598
623	0.35489	0.40357	0.47298		99.63352	99.58473	99.51518
624	0.35995	0.40702	0.47368		99.62858	99.5814	99.5146
625	0.36498	0.41035	0.47415		99.62366	99.57819	99.51424
626	0.36996	0.41353	0.47441		99.61879	99.57511	99.5141
627	0.3749	0.41656	0.47443		99.61397	99.5722	99.51419
628	0.37976	0.41943	0.47421		99.60921	99.56944	99.51452
629	0.38454	0.42212	0.47376		99.60454	99.56686	99.51509
630	0.38923	0.42463	0.47305		99.59996	99.56445	99.5159
631	0.39382	0.42695	0.4721		99.59548	99.56225	99.51697
632	0.39829	0.42906	0.4709		99.59113	99.56026	99.51828
633	0.40263	0.43095	0.46944		99.58689	99.55846	99.51985
634	0.40683	0.43263	0.46773		99.5828	99.5569	99.52168
635	0.41088	0.43407	0.46577		99.57887	99.55556	99.52375
636	0.41476	0.43528	0.46355		99.57509	99.55446	99.52608
637	0.41847	0.43625	0.46107		99.57149	99.5536	99.52866
638	0.42199	0.43697	0.45835		99.56807	99.55299	99.53149
639	0.42533	0.43743	0.45537		99.56484	99.55264	99.53458
640	0.42845	0.43763	0.45216		99.56182	99.55255	99.5379
641	0.43137	0.43757	0.4487		99.55901	99.55271	99.54147
642	0.43406	0.43724	0.44501		99.55643	99.55315	99.54527
643	0.43652	0.43664	0.44109		99.55408	99.55386	99.54929
644	0.43874	0.43576	0.43695		99.55196	99.55484	99.55354
645	0.44072	0.43462	0.4326		99.55008	99.55609	99.558
646	0.44244	0.43319	0.42804		99.54846	99.55762	99.56266
647	0.44391	0.43149	0.42329		99.5471	99.55943	99.56752
648	0.44511	0.42951	0.41835		99.54601	99.56152	99.57256
649	0.44604	0.42726	0.41324		99.54517	99.56387	99.57778
650	0.44669	0.42473	0.40797		99.54462	99.5665	99.58315
651	0.44708	0.42195	0.40256		99.54434	99.56938	99.58867
652	0.44719	0.4189	0.39701		99.54433	99.57254	99.59431
653	0.44701	0.41558	0.39135		99.54462	99.57596	99.60008
654	0.44653	0.41201	0.38558		99.54519	99.57964	99.60596
655	0.44577	0.40818	0.37971		99.54605	99.58356	99.61192
656	0.44472	0.4041	0.37378		99.54721	99.58774	99.61796
657	0.44347	0.39991	0.36789		99.54855	99.59203	99.62395
658	0.44194	0.39548	0.36196		99.55018	99.59657	99.62998
659	0.44012	0.39082	0.35601		99.5521	99.60132	99.63604
660	0.43801	0.38595	0.35005		99.55431	99.60629	99.64209
661	0.43562	0.38088	0.3441		99.5568	99.61147	99.64814
662	0.43294	0.3756	0.33819		99.55958	99.61684	99.65415
663	0.42997	0.37014	0.33234		99.56264	99.6224	99.6601
664	0.42673	0.3645	0.32656		99.56598	99.62814	99.66599
665	0.42322	0.3587	0.32089		99.5696	99.63403	99.67176
666	0.41943	0.35275	0.31533		99.57348	99.64008	99.67741
667	0.41538	0.34667	0.30993		99.57762	99.64626	99.68291
668	0.41108	0.34046	0.30469		99.58202	99.65257	99.68825
669	0.40652	0.33414	0.29966		99.58668	99.65898	99.69338
670	0.40171	0.32773	0.29484		99.59158	99.66549	99.6983
671	0.39667	0.32124	0.29027		99.59672	99.67207	99.70296
672	0.3914	0.3147	0.28597		99.60208	99.67871	99.70735
673	0.38591	0.30811	0.28198		99.60767	99.68539	99.71145
674	0.38022	0.3015	0.27831		99.61345	99.69211	99.71521
675	0.37432	0.29488	0.275		99.61945	99.69881	99.71862
676	0.36824	0.28827	0.27207		99.62563	99.70552	99.72164
677	0.36198	0.2817	0.26956		99.63197	99.71219	99.72425
678	0.35555	0.27518	0.26749		99.63849	99.7188	99.72642
679	0.34898	0.26873	0.26588		99.64516	99.72533	99.72811
680	0.34227	0.26238	0.26478		99.65196	99.73178	99.72931
681	0.33543	0.25615	0.26421		99.65889	99.73811	99.72997
682	0.32849	0.25006	0.26421		99.66592	99.74429	99.73007
683	0.32146	0.24413	0.26479		99.67304	99.75031	99.72958
684	0.31435	0.23839	0.266		99.68024	99.75615	99.72847
685	0.30717	0.23286	0.26786		99.68751	99.76176	99.7267
686	0.29996	0.22756	0.2704		99.69481	99.76715	99.72424
687	0.29272	0.22252	0.27367		99.70214	99.77229	99.72108
688	0.28539	0.21773	0.27771		99.70956	99.77716	99.71712
689	0.27808	0.21326	0.28255		99.71696	99.78173	99.71238
690	0.2708	0.20914	0.28821		99.72433	99.78594	99.70681
691	0.26358	0.20538	0.29472		99.73164	99.78979	99.70039
692	0.25644	0.20203	0.30211		99.73887	99.79323	99.69309
693	0.24939	0.1991	0.31042		99.746	99.79626	99.68488
694	0.24247	0.19662	0.31968		99.75301	99.79882	99.67571
695	0.23568	0.19462	0.32991		99.75989	99.80091	99.66556
696	0.22906	0.19312	0.34116		99.7666	99.80249	99.6544
697	0.22263	0.19217	0.35345		99.77312	99.80353	99.6422
698	0.2164	0.19178	0.36681		99.77943	99.80402	99.62893
699	0.21041	0.19198	0.38127		99.78551	99.8039	99.61456
700	0.20467	0.1928	0.39687		99.79134	99.80317	99.59904
701	0.19937	0.19441	0.41361		99.79665	99.80158	99.58233
702	0.19439	0.19668	0.4315		99.80166	99.79933	99.56445
703	0.18973	0.19965	0.45059		99.80634	99.79638	99.54539
704	0.18543	0.20334	0.4709		99.81067	99.79271	99.52511
705	0.1815	0.20778	0.49246		99.81461	99.7883	99.50357
706	0.17798	0.21299	0.51529		99.81816	99.7831	99.48076
707	0.17488	0.21901	0.53943		99.82127	99.77711	99.45665
708	0.17223	0.22585	0.56489		99.82394	99.77029	99.43121
709	0.17006	0.23356	0.59171		99.82614	99.7626	99.4044
710	0.16839	0.24215	0.61991		99.82783	99.75404	99.37623
711	0.16725	0.25165	0.64952		99.82899	99.74456	99.34664
712	0.16666	0.26209	0.68056		99.82961	99.73414	99.31563
713	0.16664	0.2735	0.71306		99.82964	99.72275	99.28315
714	0.16723	0.2859	0.74704		99.82908	99.71037	99.2492
715	0.16844	0.29932	0.78252		99.82789	99.69698	99.21374
716	0.17031	0.31379	0.81953		99.82604	99.68253	99.17675
717	0.17285	0.32933	0.85809		99.82352	99.66702	99.13821
718	0.17611	0.34596	0.89823		99.82029	99.6504	99.0981
719	0.18009	0.36373	0.93996		99.81633	99.63265	99.05639
720	0.18482	0.38264	0.9833		99.81161	99.61376	99.01307
721	0.19035	0.40273	1.02828		99.80611	99.5937	98.96811
722	0.19667	0.42402	1.07491		99.7998	99.57242	98.9215
723	0.20384	0.44654	1.12322		99.79266	99.54993	98.87321
724	0.21186	0.4703	1.17322		99.78466	99.52618	98.82324
725	0.22076	0.49534	1.22492		99.77577	99.50116	98.77155
726	0.23058	0.52168	1.27836		99.76598	99.47485	98.71814
727	0.24133	0.54934	1.33354		99.75525	99.44721	98.66299
728	0.25305	0.57835	1.39047		99.74355	99.41822	98.60607
729	0.26569	0.60863	1.44907		99.73093	99.38796	98.5475
730	0.27935	0.6403	1.50945		99.71729	99.35632	98.48714
731	0.29403	0.67337	1.57163		99.70263	99.32326	98.42498
732	0.30976	0.70787	1.63563		99.68691	99.28878	98.361
733	0.32658	0.74383	1.70145		99.67012	99.25285	98.2952
734	0.3445	0.78125	1.76911		99.65222	99.21544	98.22756
735	0.36355	0.82017	1.83862		99.63319	99.17655	98.15808
736	0.38375	0.86059	1.90998		99.61301	99.13615	98.08674
737	0.40512	0.90254	1.98321		99.59166	99.09422	98.01353
738	0.42769	0.94604	2.05831		99.56911	99.05074	97.93845
739	0.45149	0.99111	2.13529		99.54533	99.00569	97.86149
740	0.47652	1.03775	2.21416		99.52032	98.95907	97.78264
741	0.50282	1.086	2.29492		99.49404	98.91084	97.7019
742	0.53041	1.13586	2.37758		99.46648	98.861	97.61926
743	0.55931	1.18735	2.46214		99.43759	98.80953	97.53472
744	0.58953	1.24048	2.54861		99.40739	98.75642	97.44828
745	0.62111	1.29528	2.63698		99.37584	98.70164	97.35993
746	0.65405	1.35175	2.72726		99.34291	98.6452	97.26967
747	0.68839	1.4099	2.81944		99.30859	98.58707	97.17751
748	0.72413	1.46975	2.91354		99.27287	98.52724	97.08344
749	0.7613	1.53131	3.00954		99.23572	98.46569	96.98745
750	0.79992	1.59459	3.10744		99.19712	98.40243	96.88956
751	0.84	1.6596	3.20725		99.15706	98.33744	96.78978
752	0.88157	1.72635	3.30896		99.11552	98.27071	96.6881
753	0.92463	1.79485	3.41256		99.07247	98.20222	96.58452
754	0.9692	1.86511	3.51804		99.02792	98.132	96.47905
755	1.01531	1.93713	3.62541		98.98183	98.06	96.3717
756	1.06296	2.01092	3.73466		98.9342	97.98622	96.26248
757	1.11217	2.08649	3.84577		98.885	97.91068	96.15139
758	1.16296	2.16383	3.95874		98.83424	97.83334	96.03844
759	1.21533	2.24297	4.07355		98.78188	97.75423	95.92365
760	1.2693	2.32389	4.19021		98.72793	97.67333	95.80701
761	1.32489	2.4066	4.30869		98.67236	97.59064	95.68855
762	1.3821	2.49111	4.429		98.61517	97.50615	95.56826
763	1.44094	2.57742	4.5511		98.55634	97.41986	95.44618
764	1.50144	2.66552	4.67499		98.49588	97.33178	95.3223
765	1.56358	2.75542	4.80066		98.43375	97.24191	95.19666
766	1.62739	2.84711	4.9281		98.36996	97.15022	95.06924
767	1.69288	2.9406	5.05728		98.30449	97.05676	94.94008
768	1.76004	3.03588	5.18819		98.23734	96.9615	94.80919
769	1.82889	3.13295	5.32081		98.16851	96.86445	94.67658
770	1.89944	3.2318	5.45513		98.09798	96.76561	94.54229
771	1.97169	3.33244	5.59113		98.02575	96.66499	94.4063
772	2.04565	3.43485	5.72879		97.95182	96.56261	94.26867
773	2.12131	3.53903	5.86809		97.87617	96.45845	94.12939
774	2.19869	3.64497	6.00901		97.79881	96.35252	93.98849
775	2.27778	3.75267	6.15153		97.71973	96.24484	93.84599
776	2.3586	3.86212	6.29563		97.63893	96.13541	93.7019
777	2.44113	3.9733	6.44128		97.55642	96.02425	93.55627
778	2.52539	4.08622	6.58848		97.47218	95.91135	93.4091
779	2.61138	4.20085	6.73718		97.38621	95.79674	93.26041
780	2.69908	4.3172	6.88738		97.29852	95.6804	93.11023
781	2.78851	4.43524	7.03905		97.20911	95.56238	92.95859
782	2.87966	4.55497	7.19215		97.11798	95.44267	92.8055
783	2.97253	4.67638	7.34668		97.02514	95.32129	92.65099
784	3.06711	4.79944	7.5026		96.93057	95.19823	92.49509
785	3.1634	4.92415	7.65988		96.8343	95.07355	92.33782
786	3.2614	5.05049	7.81851		96.73631	94.94723	92.17921
787	3.36111	5.17845	7.97846		96.63662	94.81928	92.01928
788	3.46251	5.30801	8.1397		96.53524	94.68974	91.85806
789	3.5656	5.43915	8.3022		96.43217	94.55862	91.69558
790	3.67038	5.57187	8.46594		96.32741	94.42593	91.53185
791	3.77684	5.70613	8.63089		96.22097	94.29167	91.36692
792	3.88496	5.84193	8.79702		96.11286	94.15589	91.20081
793	3.99474	5.97925	8.96431		96.0031	94.01859	91.03354
794	4.10618	6.11806	9.13273		95.89168	93.87979	90.86515
795	4.21925	6.25835	9.30224		95.77862	93.73952	90.69565
796	4.33396	6.4001	9.47282		95.66393	93.59779	90.52509
797	4.45028	6.54329	9.64445		95.54763	93.45462	90.35348
798	4.56822	6.68789	9.81709		95.4297	93.31004	90.18085
799	4.68775	6.83389	9.99071		95.3102	93.16405	90.00725
800	4.80886	6.98127	10.16529		95.1891	93.0167	89.83269

